order_number blaze_wavelength_nm free_spectral_range_nm order_vertical_change_m order_vertical_change_rad vertical_center_m horizontal_width_m dispersion_nm_per_micron
119 299.48 2.52 0.00051 1.9188925e-05 -0.055026 0.02894 8.7e-05
118 302.02 2.56 0.000518 1.9513751e-05 -0.054512 0.02918 8.8e-05
117 304.6 2.6 0.000527 1.9848272e-05 -0.053989 0.02943 8.8e-05
116 307.23 2.65 0.000536 2.019249e-05 -0.053458 0.02968 8.9e-05
115 309.9 2.69 0.000545 2.0546404e-05 -0.052917 0.02994 9e-05
114 312.62 2.74 0.000555 2.0910014e-05 -0.052367 0.0302 9.1e-05
113 315.39 2.79 0.000565 2.1278472e-05 -0.051807 0.03047 9.2e-05
112 318.2 2.84 0.000575 2.1661475e-05 -0.051237 0.03074 9.2e-05
111 321.07 2.89 0.000585 2.2054174e-05 -0.050658 0.03102 9.3e-05
110 323.99 2.95 0.000595 2.245657e-05 -0.050068 0.0313 9.4e-05
109 326.96 3 0.000606 2.2868661e-05 -0.049467 0.03159 9.5e-05
108 329.99 3.06 0.000617 2.3295297e-05 -0.048855 0.03188 9.6e-05
107 333.07 3.11 0.000629 2.373163e-05 -0.048233 0.03218 9.7e-05
106 336.21 3.17 0.00064 2.4182506e-05 -0.047598 0.03248 9.8e-05
105 339.41 3.23 0.000652 2.4647928e-05 -0.046952 0.03279 9.9e-05
104 342.68 3.29 0.000665 2.5123045e-05 -0.046293 0.03311 0.0001
103 346.01 3.36 0.000678 2.5612707e-05 -0.045622 0.03343 0.0001
102 349.4 3.43 0.000691 2.6116913e-05 -0.044938 0.03376 0.0001
101 352.86 3.49 0.000704 2.6635664e-05 -0.04424 0.03409 0.0001
100 356.39 3.56 0.000718 2.7173807e-05 -0.043529 0.03443 0.0001
99 359.99 3.64 0.000733 2.7726494e-05 -0.042804 0.03478 0.00011
98 363.66 3.71 0.000747 2.8293726e-05 -0.042064 0.03514 0.00011
97 367.41 3.79 0.000763 2.8880351e-05 -0.041309 0.0355 0.00011
96 371.23 3.87 0.000778 2.9486368e-05 -0.040539 0.03587 0.00011
95 375.14 3.95 0.000795 3.010693e-05 -0.039753 0.03625 0.00011
94 379.13 4.03 0.000811 3.0751732e-05 -0.03895 0.03663 0.00011
93 383.21 4.12 0.000828 3.1415927e-05 -0.03813 0.03702 0.00011
92 387.38 4.21 0.000846 3.2104362e-05 -0.037293 0.03743 0.00011
91 391.63 4.3 0.000865 3.281219e-05 -0.036438 0.03784 0.00011
90 395.98 4.4 0.000884 3.3549107e-05 -0.035564 0.03826 0.00012
89 400.43 4.5 0.000903 3.4305416e-05 -0.03467 0.03869 0.00012
88 404.98 4.6 0.000924 3.5090814e-05 -0.033757 0.03913 0.00012
87 409.64 4.71 0.000945 3.5900453e-05 -0.032823 0.03958 0.00012
86 414.4 4.82 0.000966 3.6739181e-05 -0.031868 0.04004 0.00012
85 419.28 4.93 0.000989 3.7611845e-05 -0.030891 0.04051 0.00012
84 424.27 5.05 0.00101 3.8513599e-05 -0.029891 0.04099 0.00012
83 429.38 5.17 0.00104 3.9444441e-05 -0.028867 0.04149 0.00013
82 434.62 5.3 0.00106 4.0414068e-05 -0.027819 0.04199 0.00013
81 439.98 5.43 0.00109 4.1417633e-05 -0.026745 0.04251 0.00013
80 445.48 5.57 0.00111 4.2459982e-05 -0.025645 0.04304 0.00013
79 451.12 5.71 0.00114 4.3541117e-05 -0.024517 0.04359 0.00013
78 456.9 5.86 0.00117 4.4665884e-05 -0.023362 0.04415 0.00013
77 462.84 6.01 0.0012 4.5834285e-05 -0.022177 0.04472 0.00013
76 468.93 6.17 0.00123 4.704632e-05 -0.020961 0.04531 0.00014
75 475.18 6.34 0.00126 4.8311683e-05 -0.019713 0.04591 0.00014
74 481.6 6.51 0.0013 4.9625528e-05 -0.018433 0.04653 0.00014
73 488.2 6.69 0.00133 5.0997551e-05 -0.017118 0.04717 0.00014
72 494.98 6.87 0.00137 5.2422903e-05 -0.015767 0.04782 0.00014
71 501.95 7.07 0.00141 5.3911281e-05 -0.014379 0.0485 0.00015
70 509.12 7.27 0.00145 5.5462685e-05 -0.012952 0.04919 0.00015
69 516.5 7.49 0.00149 5.7081963e-05 -0.011484 0.0499 0.00015
68 524.1 7.71 0.00153 5.8769114e-05 -0.009974 0.05064 0.00015
67 531.92 7.94 0.00158 6.0538684e-05 -0.00842 0.05139 0.00015
66 539.98 8.18 0.00162 6.2390673e-05 -0.00682 0.05217 0.00016
65 548.29 8.44 0.00167 6.4325079e-05 -0.005172 0.05297 0.00016
64 556.85 8.7 0.00173 6.63516e-05 -0.003473 0.0538 0.00016
63 565.69 8.98 0.00178 6.8475084e-05 -0.001722 0.05466 0.00016
62 574.82 9.27 0.00184 7.0700379e-05 8.5e-05 0.05554 0.00017
61 584.24 9.58 0.00189 7.3037181e-05 0.00195 0.05645 0.00017
60 593.98 9.9 0.00196 7.5495186e-05 0.003876 0.05739 0.00017
59 604.04 10.2 0.00202 7.8074395e-05 0.005866 0.05836 0.00018
58 614.46 10.6 0.00209 8.07942e-05 0.007922 0.05937 0.00018
57 625.24 11 0.00216 8.3649753e-05 0.01005 0.06041 0.00018
56 636.4 11.4 0.00224 8.6665294e-05 0.012251 0.06149 0.00019
55 647.97 11.8 0.00232 8.985052e-05 0.014531 0.06261 0.00019
54 659.97 12.2 0.00241 9.320543e-05 0.016894 0.06377 0.00019
53 672.43 12.7 0.0025 9.6759114e-05 0.019343 0.06497 0.0002
52 685.36 13.2 0.00259 0.00010051642 0.021885 0.06622 0.0002
51 698.79 13.7 0.00269 0.00010450159 0.024524 0.06752 0.0002
50 712.77 14.3 0.0028 0.00010872432 0.027267 0.06887 0.00021
49 727.32 14.8 0.00291 0.00011320884 0.030119 0.07027 0.00021
48 742.47 15.5 0.00303 0.00011797456 0.033087 0.07174 0.00022
47 758.27 16.1 0.00316 0.00012305056 0.036178 0.07326 0.00022
46 774.75 16.8 0.00329 0.00012846108 0.039401 0.07485 0.00023
45 791.97 17.6 0.00344 0.00013424006 0.042764 0.07652 0.00023
44 809.97 18.4 0.00359 0.00014041174 0.046276 0.07826 0.00024
43 828.8 19.3 0.00376 0.0001470246 0.049948 0.08008 0.00024
42 848.54 20.2 0.00393 0.00015411257 0.05379 0.08198 0.00025
41 869.23 21.2 0.00412 0.00016172415 0.057816 0.08398 0.00025
40 890.96 22.3 0.00433 0.0001699175 0.062039 0.08608 0.00026
39 913.81 23.4 0.00455 0.0001787508 0.066473 0.08829 0.00026
38 937.86 24.7 0.00479 0.00018828709 0.071135 0.09061 0.00027
37 963.2 26 0.00504 0.00019860877 0.076044 0.09306 0.00028
36 989.96 27.5 0.00532 0.00020980312 0.08122 0.09565 0.00029
